# solvent potential/V energy/eV
# RuO2-AEM 
-0.838	-1027.821	-0.736	-1038.491	-0.667	-1033.706	-0.764	-1042.770	-0.604	-1038.217
-0.569	-1027.472	-0.467	-1038.14	-0.400	-1033.358	-0.493	-1042.418	-0.336	-1037.869
-0.308	-1027.267	-0.203	-1037.933	-0.138	-1033.153	-0.229	-1042.211	-0.075	-1037.664
-0.052	-1027.201	 0.058	-1037.865	 0.121	-1033.085	 0.030	-1042.143	 0.184	-1037.597
 0.203	-1027.268	 0.313	-1037.931	 0.376	-1033.151	 0.285	-1042.209	 0.439	-1037.663
 0.457	-1027.465	 0.567	-1038.126	 0.629	-1033.345	 0.538	-1042.404	 0.691	-1037.856
 0.708	-1027.787	 0.818	-1038.445	 0.880	-1033.665	 0.788	-1042.722	 0.938	-1038.169
# RuO2-LOM
-0.838	-1027.821	-0.736	-1038.491	-0.667	-1033.706	-0.819	-1020.031	-0.959	-1031.309
-0.569	-1027.472	-0.467	-1038.14	-0.400	-1033.358	-0.550	-1019.68	-0.690	-1030.96
-0.308	-1027.267	-0.203	-1037.933	-0.138	-1033.153	-0.289	-1019.475	-0.428	-1030.755
-0.052	-1027.201	 0.058	-1037.865	 0.121	-1033.085	-0.032	-1019.408	-0.172	-1030.687
 0.203	-1027.268	 0.313	-1037.931	 0.376	-1033.151	 0.223	-1019.473	 0.080	-1030.753
 0.457	-1027.465	 0.567	-1038.126	 0.629	-1033.345	 0.475	-1019.668	 0.331	-1030.949
 0.708	-1027.787	 0.818	-1038.445	 0.880	-1033.665	 0.724	-1019.985	 0.580	-1031.269
# RuO2-OPM-1
-0.838	-1027.821	-0.736	-1038.491	-0.667	-1033.706	-0.576	-1044.265	-0.604	-1038.217
-0.569	-1027.472	-0.467	-1038.14	-0.4	-1033.358	-0.304	-1043.91	-0.336	-1037.869
-0.308	-1027.267	-0.203	-1037.933	-0.138	-1033.153	-0.038	-1043.701	-0.075	-1037.664
-0.052	-1027.201	0.058	-1037.865	0.121	-1033.085	0.224	-1043.632	0.184	-1037.597
0.203	-1027.268	0.313	-1037.931	0.376	-1033.151	0.482	-1043.699	0.439	-1037.663
0.457	-1027.465	0.567	-1038.126	0.629	-1033.345	0.738	-1043.894	0.691	-1037.856
0.708	-1027.787	0.818	-1038.445	0.88	-1033.665	0.99	-1044.213	0.938	-1038.169
# RuO2-OPM-2
-0.838	-1027.821	-0.736	-1038.491	-0.642	-1049.082	-0.576	-1044.265	-0.604	-1038.217
-0.569	-1027.472	-0.467	-1038.14	-0.369	-1048.726	-0.304	-1043.91	-0.336	-1037.869
-0.308	-1027.267	-0.203	-1037.933	-0.102	-1048.517	-0.038	-1043.701	-0.075	-1037.664
-0.052	-1027.201	0.058	-1037.865	0.16	-1048.448	0.224	-1043.632	0.184	-1037.597
0.203	-1027.268	0.313	-1037.931	0.42	-1048.514	0.482	-1043.699	0.439	-1037.663
0.457	-1027.465	0.567	-1038.126	0.676	-1048.71	0.738	-1043.894	0.691	-1037.856
0.708	-1027.787	0.818	-1038.445	0.928	-1049.03	0.99	-1044.213	0.938	-1038.169
# 1Zn-AEM
-0.728	-1021.237	-0.657	-1031.715	-0.594	-1026.973	-0.701	-1036.011	-0.554	-1031.436
-0.457	-1020.886	-0.384	-1031.359	-0.324	-1026.62	-0.429	-1035.657	-0.287	-1031.092
-0.193	-1020.68	-0.119	-1031.151	-0.059	-1026.412	-0.163	-1035.448	-0.025	-1030.884
0.066	-1020.612	0.142	-1031.082	0.202	-1026.343	0.098	-1035.38	0.232	-1030.817
0.322	-1020.679	0.400	-1031.149	0.46	-1026.408	0.356	-1035.446	0.489	-1030.88
0.577	-1020.876	0.655	-1031.345	0.714	-1026.602	0.61	-1035.643	0.738	-1031.072
0.828	-1021.197	0.906	-1031.664	0.964	-1026.92	0.86	-1035.962	0.985	-1031.385
# 1Zn-LOM
-0.728	-1021.237	-0.657	-1031.715	-0.594	-1026.973	-0.76	-1013.698	-0.846	-1025.274
-0.457	-1020.886	-0.384	-1031.359	-0.324	-1026.62	-0.491	-1013.348	-0.574	-1024.922
-0.193	-1020.68	-0.119	-1031.151	-0.059	-1026.412	-0.229	-1013.142	-0.308	-1024.714
0.066	-1020.612	0.142	-1031.082	0.202	-1026.343	0.026	-1013.074	-0.05	-1024.646
0.322	-1020.679	0.400	-1031.149	0.460	-1026.408	0.278	-1013.139	0.205	-1024.712
0.577	-1020.876	0.655	-1031.345	0.714	-1026.602	0.527	-1013.331	0.458	-1024.908
0.828	-1021.197	0.906	-1031.664	0.964	-1026.92	0.772	-1013.645	0.708	-1025.228
# 1Zn-OPM-1
-0.728	-1021.237	-0.657	-1031.715	-0.594	-1026.973	-0.494	-1036.388	-0.554	-1031.436
-0.457	-1020.886	-0.384	-1031.359	-0.324	-1026.62	-0.225	-1036.036	-0.287	-1031.092
-0.193	-1020.68	-0.119	-1031.151	-0.059	-1026.412	0.04	-1035.829	-0.025	-1030.884
0.066	-1020.612	0.142	-1031.082	0.202	-1026.343	0.301	-1035.761	0.232	-1030.817
0.322	-1020.679	0.400	-1031.149	0.46	-1026.408	0.559	-1035.826	0.489	-1030.88
0.577	-1020.876	0.655	-1031.345	0.714	-1026.602	0.815	-1036.021	0.738	-1031.072
0.828	-1021.197	0.906	-1031.664	0.964	-1026.92	1.065	-1036.339	0.985	-1031.385
# 1Zn-OPM-2
-0.728	-1021.237	-0.657	-1031.715	-0.562	-1041.206	-0.494	-1036.388	-0.554	-1031.436
-0.457	-1020.886	-0.384	-1031.359	-0.291	-1040.852	-0.225	-1036.036	-0.287	-1031.092
-0.193	-1020.68	-0.119	-1031.151	-0.026	-1040.645	0.04	-1035.829	-0.025	-1030.884
0.066	-1020.612	0.142	-1031.082	0.236	-1040.576	0.301	-1035.761	0.232	-1030.817
0.322	-1020.679	0.400	-1031.149	0.496	-1040.643	0.559	-1035.826	0.489	-1030.88
0.577	-1020.876	0.655	-1031.345	0.751	-1040.839	0.815	-1036.021	0.738	-1031.072
0.828	-1021.197	0.906	-1031.664	1.003	-1041.16	1.065	-1036.339	0.985	-1031.385
# 2Zn-AEM
-0.615	-1014.571	-0.545	-1024.971	-0.48	-1020.236	-0.591	-1029.278	-0.446	-1024.67
-0.341	-1014.214	-0.271	-1024.615	-0.209	-1019.883	-0.317	-1028.92	-0.178	-1024.319
-0.076	-1014.005	-0.005	-1024.405	0.055	-1019.676	-0.049	-1028.709	0.083	-1024.114
0.184	-1013.935	0.257	-1024.336	0.317	-1019.607	0.211	-1028.64	0.341	-1024.046
0.441	-1014.001	0.515	-1024.402	0.575	-1019.674	0.47	-1028.706	0.595	-1024.111
0.694	-1014.195	0.77	-1024.598	0.83	-1019.87	0.724	-1028.901	0.846	-1024.303
0.943	-1014.512	1.02	-1024.916	1.08	-1020.187	0.974	-1029.22	1.091	-1024.615
# 2Zn-LOM
-0.615	-1014.571	-0.545	-1024.971	-0.48	-1020.236	-0.658	-1007.152	-0.733	-1018.624
-0.341	-1014.214	-0.271	-1024.615	-0.209	-1019.883	-0.388	-1006.80	-0.459	-1018.269
-0.076	-1014.005	-0.005	-1024.405	0.055	-1019.676	-0.126	-1006.595	-0.193	-1018.062
0.184	-1013.935	0.257	-1024.336	0.317	-1019.607	0.13	-1006.527	0.066	-1017.993
0.441	-1014.001	0.515	-1024.402	0.575	-1019.674	0.383	-1006.592	0.323	-1018.059
0.694	-1014.195	0.77	-1024.598	0.83	-1019.87	0.632	-1006.785	0.576	-1018.255
0.943	-1014.512	1.02	-1024.916	1.08	-1020.187	0.877	-1007.099	0.825	-1018.574
# 2Zn-OPM-1
-0.615	-1014.571	-0.545	-1024.971	-0.48	-1020.236	-0.38	-1029.675	-0.446	-1024.67
-0.341	-1014.214	-0.271	-1024.615	-0.209	-1019.883	-0.107	-1029.32	-0.178	-1024.319
-0.076	-1014.005	-0.005	-1024.405	0.055	-1019.676	0.159	-1029.111	0.083	-1024.114
0.184	-1013.935	0.257	-1024.336	0.317	-1019.607	0.422	-1029.042	0.341	-1024.046
0.441	-1014.001	0.515	-1024.402	0.575	-1019.674	0.683	-1029.108	0.595	-1024.111
0.694	-1014.195	0.77	-1024.598	0.83	-1019.87	0.938	-1029.303	0.846	-1024.303
0.943	-1014.512	1.02	-1024.916	1.08	-1020.187	1.188	-1029.619	1.091	-1024.615
# 2Zn-OPM-2
-0.615	-1014.571	-0.545	-1024.971	-0.446	-1034.475	-0.38	-1029.675	-0.446	-1024.67
-0.341	-1014.214	-0.271	-1024.615	-0.174	-1034.119	-0.107	-1029.32	-0.178	-1024.319
-0.076	-1014.005	-0.005	-1024.405	0.092	-1033.912	0.159	-1029.111	0.083	-1024.114
0.184	-1013.935	0.257	-1024.336	0.354	-1033.843	0.422	-1029.042	0.341	-1024.046
0.441	-1014.001	0.515	-1024.402	0.614	-1033.91	0.683	-1029.108	0.595	-1024.111
0.694	-1014.195	0.77	-1024.598	0.87	-1034.106	0.938	-1029.303	0.846	-1024.303
0.943	-1014.512	1.02	-1024.916	1.122	-1034.427	1.188	-1029.619	1.091	-1024.615
# 3Zn-AEM
-0.523	-1007.292	-0.449	-1017.667	-0.389	-1012.946	-0.496	-1021.989	-0.359	-1017.332
-0.248	-1006.935	-0.174	-1017.308	-0.114	-1012.587	-0.22	-1021.63	-0.086	-1016.974
0.019	-1006.726	0.095	-1017.097	0.155	-1012.376	0.05	-1021.419	0.18	-1016.767
0.284	-1006.658	0.361	-1017.028	0.421	-1012.306	0.316	-1021.349	0.443	-1016.699
0.542	-1006.726	0.622	-1017.095	0.681	-1012.372	0.576	-1021.417	0.701	-1016.765
0.798	-1006.924	0.879	-1017.292	0.936	-1012.568	0.833	-1021.614	0.954	-1016.96
1.05	-1007.245	1.129	-1017.611	1.186	-1012.886	1.084	-1021.934	1.201	-1017.275
# 3Zn-LOM
-0.523	-1007.292	-0.449	-1017.667	-0.389	-1012.946	-0.589	-1000.071	-0.647	-1011.462
-0.248	-1006.935	-0.174	-1017.308	-0.114	-1012.587	-0.314	-999.706	-0.37	-1011.103
0.019	-1006.726	0.095	-1017.097	0.155	-1012.376	-0.047	-999.494	-0.102	-1010.894
0.284	-1006.658	0.361	-1017.028	0.421	-1012.306	0.215	-999.458	0.162	-1010.826
0.542	-1006.726	0.622	-1017.095	0.681	-1012.372	0.471	-999.495	0.422	-1010.893
0.798	-1006.924	0.879	-1017.292	0.936	-1012.568	0.72	-999.684	0.679	-1011.092
1.05	-1007.245	1.129	-1017.611	1.186	-1012.886	0.965	-1000.026	0.932	-1011.417
# 3Zn-OPM-1
-0.523	-1007.292	-0.449	-1017.667	-0.389	-1012.946	-0.299	-1022.297	-0.359	-1017.332
-0.248	-1006.935	-0.174	-1017.308	-0.114	-1012.587	-0.026	-1021.942	-0.086	-1016.974
0.019	-1006.726	0.095	-1017.097	0.155	-1012.376	0.244	-1021.73	0.18	-1016.767
0.284	-1006.658	0.361	-1017.028	0.421	-1012.306	0.508	-1021.661	0.443	-1016.699
0.542	-1006.726	0.622	-1017.095	0.681	-1012.372	0.768	-1021.727	0.701	-1016.765
0.798	-1006.924	0.879	-1017.292	0.936	-1012.568	1.022	-1021.921	0.954	-1016.96
1.05	-1007.245	1.129	-1017.611	1.186	-1012.886	1.272	-1022.24	1.201	-1017.275
# 3Zn-OPM-2
-0.523	-1007.292	-0.449	-1017.667	-0.346	-1027.169	-0.299	-1022.297	-0.359	-1017.332
-0.248	-1006.935	-0.174	-1017.308	-0.071	-1026.81	-0.026	-1021.942	-0.086	-1016.974
0.019	-1006.726	0.095	-1017.097	0.199	-1026.599	0.244	-1021.73	0.18	-1016.767
0.284	-1006.658	0.361	-1017.028	0.465	-1026.529	0.508	-1021.661	0.443	-1016.699
0.542	-1006.726	0.622	-1017.095	0.728	-1026.596	0.768	-1021.727	0.701	-1016.765
0.798	-1006.924	0.879	-1017.292	0.986	-1026.794	1.022	-1021.921	0.954	-1016.96
1.05	-1007.245	1.129	-1017.611	1.238	-1027.11	1.272	-1022.24	1.201	-1017.275
# 4Zn-AEM
-0.459	-1000.102	-0.387	-1010.241	-0.339	-1005.462	-0.445	-1014.547	-0.311	-1009.997
-0.181	-999.740	-0.111	-1009.88	-0.062	-1005.101	-0.168	-1014.186	-0.038	-1009.642
0.084	-999.557	0.161	-1009.667	0.209	-1004.888	0.103	-1013.974	0.228	-1009.453
0.355	-999.488	0.426	-1009.611	0.476	-1004.818	0.368	-1013.896	0.491	-1009.384
0.621	-999.556	0.689	-1009.671	0.739	-1004.885	0.635	-1013.971	0.75	-1009.449
0.884	-999.758	0.946	-1009.873	0.996	-1005.082	0.888	-1014.165	1.003	-1009.642
1.142	-1000.085	1.198	-1010.204	1.247	-1005.398	1.141	-1014.508	1.251	-1009.954
# 4Zn-LOM
-0.459	-1000.102	-0.387	-1010.241	-0.339	-1005.462	-0.487	-992.827	-0.578	-1004.273
-0.181	-999.74 	-0.111	-1009.88	-0.062	-1005.101	-0.212	-992.47 	-0.3	-1003.915
0.084	-999.557	0.161	-1009.667	0.209	-1004.888	0.056	-992.261	-0.028	-1003.703
0.355	-999.488	0.426	-1009.611	0.476	-1004.818	0.318	-992.193	0.24	-1003.634
0.621	-999.556	0.689	-1009.671	0.739	-1004.885	0.573	-992.259	0.504	-1003.702
0.884	-999.758	0.946	-1009.873	0.996	-1005.082	0.818	-992.448	0.764	-1003.904
1.142	-1000.085	1.198	-1010.204	1.247	-1005.398	0.993	-992.677	1.019	-1004.231
# 4Zn-OPM-1
-0.459	-1000.102	-0.387	-1010.241	-0.339	-1005.462	-0.273	-1014.659	-0.311	-1009.997
-0.181	-999.740	-0.111	-1009.88	-0.062	-1005.101	0.002	-1014.299	-0.038	-1009.642
0.084	-999.557	0.161	-1009.667	0.209	-1004.888	0.274	-1014.086	0.228	-1009.453
0.355	-999.488	0.426	-1009.611	0.476	-1004.818	0.541	-1014.016	0.491	-1009.384
0.621	-999.556	0.689	-1009.671	0.739	-1004.885	0.803	-1014.083	0.75	-1009.449
0.884	-999.758	0.946	-1009.873	0.996	-1005.082	1.061	-1014.28	1.003	-1009.642
1.142	-1000.085	1.198	-1010.204	1.247	-1005.398	1.314	-1014.60	1.251	-1009.954
# 4Zn-OPM-2
-0.459	-1000.102	-0.387	-1010.241	-0.296	-1019.573	-0.273	-1014.659	-0.311	-1009.997
-0.181	-999.740	-0.111	-1009.88	-0.018	-1019.212	0.002	-1014.299	-0.038	-1009.642
0.084	-999.557	0.161	-1009.667	0.253	-1018.999	0.274	-1014.086	0.228	-1009.453
0.355	-999.488	0.426	-1009.611	0.521	-1018.928	0.541	-1014.016	0.491	-1009.384
0.621	-999.556	0.689	-1009.671	0.784	-1018.995	0.803	-1014.083	0.75	-1009.449
0.884	-999.758	0.946	-1009.873	1.041	-1019.191	1.061	-1014.28	1.003	-1009.642
1.142	-1000.085	1.198	-1010.204	1.293	-1019.51	1.314	-1014.60	1.251	-1009.954
# 5Zn-AEM
-0.462	-992.524	-0.387	-1002.611	-0.344	-997.785	-0.45	-1006.937	-0.306	-1002.361
-0.181	-992.160	-0.11	-1002.25	-0.068	-997.425	-0.172	-1006.575	-0.034	-1002.01
0.095	-991.943	0.165	-1002.034	0.204	-997.211	0.10	-1006.36	0.234	-1001.81
0.366	-991.871	0.432	-1001.975	0.472	-997.141	0.369	-1006.29	0.497	-1001.739
0.632	-991.938	0.694	-1002.041	0.736	-997.207	0.633	-1006.357	0.754	-1001.807
0.893	-992.138	0.95	-1002.237	0.993	-997.403	0.893	-1006.555	1.007	-1002
1.148	-992.463	1.201	-1002.556	1.246	-997.723	1.146	-1006.878	1.253	-1002.313
# 5Zn-LOM
-0.462	-992.524	-0.387	-1002.611	-0.344	-997.785	-0.507	-985.347	-0.577	-996.654
-0.181	-992.160	-0.11	-1002.25	-0.068	-997.425	-0.232	-984.992	-0.299	-996.295
0.095	-991.943	0.165	-1002.034	0.204	-997.211	0.036	-984.783	-0.028	-996.083
0.366	-991.871	0.432	-1001.975	0.472	-997.141	0.297	-984.715	0.24	-996.013
0.632	-991.938	0.694	-1002.041	0.736	-997.207	0.55	-984.780	0.503	-996.081
0.893	-992.138	0.95	-1002.237	0.993	-997.403	0.767	-984.945	0.762	-996.281
1.148	-992.463	1.201	-1002.556	1.246	-997.723	0.996	-985.238	1.016	-996.607
# 5Zn-OPM-1
-0.462	-992.524	-0.387	-1002.611	-0.344	-997.785	-0.249	-1007.00	-0.306	-1002.361
-0.181	-992.160	-0.11	-1002.25	-0.068	-997.425	0.028	-1006.639	-0.034	-1002.01
0.095	-991.943	0.165	-1002.034	0.204	-997.211	0.30	-1006.425	0.234	-1001.81
0.366	-991.871	0.432	-1001.975	0.472	-997.141	0.567	-1006.355	0.497	-1001.739
0.632	-991.938	0.694	-1002.041	0.736	-997.207	0.829	-1006.421	0.754	-1001.807
0.893	-992.138	0.95	-1002.237	0.993	-997.403	1.085	-1006.617	1.007	-1002
1.148	-992.463	1.201	-1002.556	1.246	-997.723	1.337	-1006.936	1.253	-1002.313
# 5Zn-OPM-2
-0.462	-992.524	-0.387	-1002.611	-0.29	-1011.919	-0.249	-1007.00	-0.306	-1002.361
-0.181	-992.160	-0.11	-1002.25	-0.013	-1011.558	0.028	-1006.639	-0.034	-1002.01
0.095	-991.943	0.165	-1002.034	0.26	-1011.344	0.30	-1006.425	0.234	-1001.81
0.366	-991.871	0.432	-1001.975	0.528	-1011.273	0.567	-1006.355	0.497	-1001.739
0.632	-991.938	0.694	-1002.041	0.79	-1011.339	0.829	-1006.421	0.754	-1001.807
0.893	-992.138	0.95	-1002.237	1.046	-1011.535	1.085	-1006.617	1.007	-1002
1.148	-992.463	1.201	-1002.556	1.298	-1011.854	1.337	-1006.936	1.253	-1002.313
# 6Zn-AEM
-0.469	-984.912	-0.385	-995.010	-0.356	-990.198	-0.456	-999.331	-0.31	-994.782
-0.191	-984.557	-0.104	-994.641	-0.078	-989.836	-0.175	-998.971	-0.036	-994.428
0.085	-984.344	0.165	-994.436	0.196	-989.623	0.10	-998.752	0.232	-994.217
0.355	-984.277	0.428	-994.372	0.466	-989.553	0.363	-998.685	0.498	-994.145
0.623	-984.316	0.691	-994.407	0.732	-989.621	0.632	-998.748	0.757	-994.213
0.89	-984.531	0.949	-994.626	0.992	-989.820	0.889	-998.954	1.011	-994.407
1.152	-984.806	1.203	-994.957	1.246	-990.142	1.144	-999.274	1.26	-994.719
# 6Zn-LOM
-0.469	-984.912	-0.385	-995.010	-0.356	-990.198	-0.515	-977.782	-0.581	-989.045
-0.191	-984.557	-0.104	-994.641	-0.078	-989.836	-0.239	-977.425	-0.306	-988.743
0.085	-984.344	0.165	-994.436	0.196	-989.623	0.03	-977.215	-0.03	-988.478
0.355	-984.277	0.428	-994.372	0.466	-989.553	0.294	-977.146	0.242	-988.406
0.623	-984.316	0.691	-994.407	0.732	-989.621	0.550	-977.210	0.495	-988.452
0.89	-984.531	0.949	-994.626	0.992	-989.820	0.77	-977.376	0.758	-988.677
1.152	-984.806	1.203	-994.957	1.246	-990.142	0.998	-977.669	1.015	-989.01
# 6Zn-OPM-1
-0.469	-984.912	-0.385	-995.010	-0.356	-990.198	-0.244	-999.396	-0.31	-994.782
-0.191	-984.557	-0.104	-994.641	-0.078	-989.836	0.033	-999.035	-0.036	-994.428
0.085	-984.344	0.165	-994.436	0.196	-989.623	0.306	-998.822	0.232	-994.217
0.355	-984.277	0.428	-994.372	0.466	-989.553	0.574	-998.752	0.498	-994.145
0.623	-984.316	0.691	-994.407	0.732	-989.621	0.836	-998.820	0.757	-994.213
0.89	-984.531	0.949	-994.626	0.992	-989.820	1.093	-999.017	1.011	-994.407
1.152	-984.806	1.203	-994.957	1.246	-990.142	1.345	-999.337	1.26	-994.719
# 6Zn-OPM-2
-0.469	-984.912	-0.385	-995.010	-0.283	-1004.293	-0.244	-999.396	-0.31	-994.782
-0.191	-984.557	-0.104	-994.641	-0.009	-1003.937	0.033	-999.035	-0.036	-994.428
0.085	-984.344	0.165	-994.436	0.265	-1003.722	0.306	-998.822	0.232	-994.217
0.355	-984.277	0.428	-994.372	0.533	-1003.654	0.574	-998.752	0.498	-994.145
0.623	-984.316	0.691	-994.407	0.799	-1003.704	0.836	-998.820	0.757	-994.213
0.89	-984.531	0.949	-994.626	1.052	-1003.915	1.093	-999.017	1.011	-994.407
1.152	-984.806	1.203	-994.957	1.307	-1004.225	1.345	-999.337	1.26	-994.719
